Height/(arb.u)	Counts
0	6763
0.005	6744
0.01	6648
0.015	6622
0.02	6553
0.025	6566
0.03	6516
0.035	6464
0.04	6451
0.045	6394
0.05	6258
0.055	6159
0.06	6157
0.065	6092
0.07	6052
0.075	5850
0.08	5827
0.085	5830
0.09	5723
0.095	5743
0.1	5771
0.105	5723
0.11	5488
0.115	5386
0.12	5454
0.125	5507
0.13	5579
0.135	5163
0.14	5106
0.145	5126
0.15	5364
0.155	5186
0.16	5146
0.165	5002
0.17	4932
0.175	4959
0.18	4950
0.185	4716
0.19	4763
0.195	4769
0.2	4733
0.205	4593
0.21	4784
0.215	4576
0.22	4715
0.225	4706
0.23	4464
0.235	4442
0.24	4401
0.245	4452
0.25	4402
0.255	4348
0.26	4378
0.265	4187
0.27	4248
0.275	4234
0.28	4145
0.285	4355
0.29	4140
0.295	4095
0.3	4158
0.305	4177
0.31	4121
0.315	4075
0.32	4035
0.325	4052
0.33	4057
0.335	3953
0.34	4110
0.345	4007
0.35	3937
0.355	3983
0.36	4058
0.365	3996
0.37	3991
0.375	4008
0.38	3934
0.385	3890
0.39	3977
0.395	3996
0.4	3958
0.405	3938
0.41	3950
0.415	4030
0.42	3905
0.425	3897
0.43	3872
0.435	3921
0.44	3896
0.445	3964
0.45	3948
0.455	3990
0.46	3940
0.465	4032
0.47	3957
0.475	3980
0.48	3923
0.485	3967
0.49	3937
0.495	3961
0.5	3892
0.505	3984
0.51	3916
0.515	3975
0.52	4023
0.525	3969
0.53	3937
0.535	3970
0.54	3963
0.545	3808
0.55	3986
0.555	3841
0.56	3971
0.565	3957
0.57	3930
0.575	3927
0.58	3964
0.585	3776
0.59	3934
0.595	3929
0.6	3890
0.605	3926
0.61	3884
0.615	3832
0.62	3867
0.625	3833
0.63	3830
0.635	3855
0.64	3907
0.645	3708
0.65	3786
0.655	3685
0.66	3842
0.665	3828
0.67	3810
0.675	3725
0.68	3722
0.685	3761
0.69	3645
0.695	3645
0.7	3635
0.705	3579
0.71	3610
0.715	3613
0.72	3478
0.725	3588
0.73	3409
0.735	3524
0.74	3519
0.745	3494
0.75	3508
0.755	3527
0.76	3370
0.765	3420
0.77	3313
0.775	3283
0.78	3272
0.785	3276
0.79	3274
0.795	3355
0.8	3254
0.805	3251
0.81	3180
0.815	3134
0.82	3110
0.825	3107
0.83	3106
0.835	2995
0.84	2992
0.845	2952
0.85	3016
0.855	2830
0.86	2974
0.865	2833
0.87	2893
0.875	2812
0.88	2704
0.885	2769
0.89	2730
0.895	2717
0.9	2708
0.905	2625
0.91	2660
0.915	2543
0.92	2571
0.925	2590
0.93	2512
0.935	2422
0.94	2398
0.945	2454
0.95	2357
0.955	2290
0.96	2311
0.965	2260
0.97	2193
0.975	2253
0.98	2187
0.985	2105
0.99	2073
0.995	2136
1	2073
1.005	2073
1.01	2077
1.015	1955
1.02	2056
1.025	1962
1.03	1892
1.035	1827
1.04	1891
1.045	1860
1.05	1790
1.055	1826
1.06	1761
1.065	1707
1.07	1668
1.075	1581
1.08	1602
1.085	1573
1.09	1570
1.095	1570
1.1	1523
1.105	1505
1.11	1549
1.115	1487
1.12	1478
1.125	1400
1.13	1362
1.135	1378
1.14	1340
1.145	1284
1.15	1267
1.155	1251
1.16	1247
1.165	1214
1.17	1188
1.175	1201
1.18	1075
1.185	1103
1.19	1168
1.195	1089
1.2	1062
1.205	1096
1.21	1014
1.215	1022
1.22	959
1.225	940
1.23	950
1.235	930
1.24	947
1.245	952
1.25	897
1.255	881
1.26	906
1.265	821
1.27	841
1.275	816
1.28	790
1.285	730
1.29	754
1.295	735
1.3	695
1.305	716
1.31	684
1.315	666
1.32	694
1.325	644
1.33	643
1.335	628
1.34	643
1.345	590
1.35	584
1.355	585
1.36	600
1.365	602
1.37	553
1.375	492
1.38	530
1.385	535
1.39	458
1.395	475
1.4	459
1.405	477
1.41	459
1.415	465
1.42	452
1.425	471
1.43	417
1.435	445
1.44	425
1.445	393
1.45	388
1.455	330
1.46	384
1.465	357
1.47	325
1.475	360
1.48	322
1.485	336
1.49	327
1.495	338
1.5	308
1.505	330
1.51	321
1.515	263
1.52	293
1.525	304
1.53	253
1.535	260
1.54	270
1.545	263
1.55	217
1.555	241
1.56	233
1.565	246
1.57	234
1.575	239
1.58	200
1.585	218
1.59	216
1.595	189
1.6	166
1.605	188
1.61	205
1.615	168
1.62	160
1.625	178
1.63	157
1.635	172
1.64	171
1.645	145
1.65	143
1.655	137
1.66	167
1.665	151
1.67	153
1.675	143
1.68	132
1.685	136
1.69	112
1.695	131
1.7	144
1.705	125
1.71	121
1.715	112
1.72	133
1.725	115
1.73	108
1.735	109
1.74	83
1.745	90
1.75	100
1.755	103
1.76	99
1.765	98
1.77	90
1.775	79
1.78	83
1.785	86
1.79	88
1.795	84
1.8	68
1.805	77
1.81	62
1.815	73
1.82	75
1.825	61
1.83	61
1.835	59
1.84	56
1.845	61
1.85	71
1.855	61
1.86	62
1.865	55
1.87	56
1.875	56
1.88	58
1.885	62
1.89	44
1.895	54
1.9	47
1.905	55
1.91	56
1.915	47
1.92	51
1.925	43
1.93	42
1.935	59
1.94	48
1.945	46
1.95	56
1.955	42
1.96	44
1.965	39
1.97	46
1.975	33
1.98	43
1.985	30
1.99	31
1.995	28
2	30
2.005	29
2.01	41
2.015	35
2.02	44
2.025	30
2.03	38
2.035	26
2.04	38
2.045	36
2.05	34
2.055	26
2.06	36
2.065	28
2.07	34
2.075	23
2.08	26
2.085	27
2.09	26
2.095	29
2.1	31
2.105	27
2.11	20
2.115	31
2.12	29
2.125	24
2.13	22
2.135	29
2.14	28
2.145	32
2.15	21
2.155	20
2.16	19
2.165	16
2.17	22
2.175	26
2.18	16
2.185	25
2.19	20
2.195	21
2.2	19
2.205	18
2.21	19
2.215	13
2.22	21
2.225	11
2.23	23
2.235	22
2.24	23
2.245	11
2.25	18
2.255	15
2.26	13
2.265	20
2.27	15
2.275	14
2.28	25
2.285	18
2.29	23
2.295	20
2.3	19
2.305	14
2.31	11
2.315	8
2.32	12
2.325	20
2.33	20
2.335	26
2.34	14
2.345	18
2.35	11
2.355	15
2.36	17
2.365	18
2.37	15
2.375	10
2.38	8
2.385	26
2.39	18
2.395	13
2.4	10
2.405	12
2.41	10
2.415	11
2.42	15
2.425	21
2.43	18
2.435	12
2.44	13
2.445	17
2.45	4
2.455	14
2.46	20
2.465	20
2.47	12
2.475	8
2.48	13
2.485	12
2.49	16
2.495	15
2.5	11
2.505	8
2.51	14
2.515	7
2.52	10
2.525	17
2.53	18
2.535	13
2.54	13
2.545	3
2.55	11
2.555	10
2.56	12
2.565	13
2.57	16
2.575	10
2.58	14
2.585	10
2.59	6
2.595	10
2.6	12
2.605	11
2.61	13
2.615	11
2.62	13
2.625	7
2.63	9
2.635	10
2.64	9
2.645	6
2.65	14
2.655	6
2.66	8
2.665	8
2.67	16
2.675	10
2.68	7
2.685	4
2.69	11
2.695	9
2.7	13
2.705	10
2.71	9
2.715	11
2.72	15
2.725	7
2.73	11
2.735	7
2.74	8
2.745	11
2.75	5
2.755	14
2.76	5
2.765	9
2.77	12
2.775	5
2.78	7
2.785	10
2.79	6
2.795	4
2.8	14
2.805	7
2.81	9
2.815	10
2.82	9
2.825	11
2.83	11
2.835	7
2.84	9
2.845	8
2.85	13
2.855	8
2.86	6
2.865	8
2.87	5
2.875	13
2.88	10
2.885	9
2.89	13
2.895	7
2.9	6
2.905	13
2.91	12
2.915	8
2.92	11
2.925	6
2.93	8
2.935	14
2.94	8
2.945	3
2.95	8
2.955	6
2.96	5
2.965	7
2.97	8
2.975	6
2.98	5
2.985	12
2.99	6
2.995	6
3	9
3.005	11
3.01	5
3.015	8
3.02	11
3.025	16
3.03	4
3.035	6
3.04	10
3.045	5
3.05	10
3.055	6
3.06	5
3.065	9
3.07	6
3.075	12
3.08	4
3.085	11
3.09	13
3.095	7
3.1	11
3.105	8
3.11	7
3.115	5
3.12	4
3.125	10
3.13	2
3.135	6
3.14	10
3.145	7
3.15	7
3.155	11
3.16	5
3.165	2
3.17	5
3.175	8
3.18	13
3.185	14
3.19	4
3.195	9
3.2	5
3.205	5
3.21	9
3.215	5
3.22	1
3.225	14
3.23	7
3.235	10
3.24	8
3.245	11
3.25	11
3.255	8
3.26	9
3.265	6
3.27	7
3.275	6
3.28	14
3.285	8
3.29	6
3.295	7
3.3	5
3.305	10
3.31	5
3.315	3
3.32	8
3.325	8
3.33	10
3.335	7
3.34	9
3.345	10
3.35	9
3.355	10
3.36	10
3.365	6
3.37	9
3.375	8
3.38	5
3.385	6
3.39	3
3.395	6
3.4	8
3.405	11
3.41	10
3.415	6
3.42	6
3.425	9
3.43	13
3.435	5
3.44	9
3.445	11
3.45	5
3.455	7
3.46	4
3.465	7
3.47	4
3.475	10
3.48	8
3.485	9
3.49	4
3.495	4
3.5	5
3.505	4
3.51	7
3.515	4
3.52	7
3.525	7
3.53	3
3.535	6
3.54	4
3.545	4
3.55	2
3.555	4
3.56	7
3.565	10
3.57	7
3.575	4
3.58	7
3.585	5
3.59	4
3.595	7
3.6	6
3.605	4
3.61	9
3.615	7
3.62	9
3.625	12
3.63	9
3.635	3
3.64	2
3.645	6
3.65	6
3.655	6
3.66	8
3.665	5
3.67	4
3.675	5
3.68	4
3.685	5
3.69	8
3.695	8
3.7	9
3.705	7
3.71	5
3.715	7
3.72	7
3.725	11
3.73	6
3.735	13
3.74	7
3.745	4
3.75	4
3.755	5
3.76	7
3.765	4
3.77	10
3.775	8
3.78	6
3.785	6
3.79	9
3.795	8
3.8	9
3.805	6
3.81	4
3.815	3
3.82	5
3.825	7
3.83	9
3.835	7
3.84	3
3.845	6
3.85	8
3.855	10
3.86	6
3.865	6
3.87	7
3.875	5
3.88	8
3.885	10
3.89	4
3.895	6
3.9	6
3.905	6
3.91	14
3.915	8
3.92	5
3.925	13
3.93	9
3.935	3
3.94	5
3.945	6
3.95	13
3.955	3
3.96	3
3.965	6
3.97	4
3.975	5
3.98	8
3.985	3
3.99	7
3.995	4
4	5
4.005	6
4.01	7
4.015	4
4.02	6
4.025	10
4.03	3
4.035	2
4.04	7
4.045	8
4.05	3
4.055	7
4.06	6
4.065	8
4.07	6
4.075	5
4.08	3
4.085	11
4.09	5
4.095	9
4.1	5
4.105	7
4.11	3
4.115	13
4.12	7
4.125	4
4.13	10
4.135	6
4.14	5
4.145	8
4.15	6
4.155	2
4.16	7
4.165	7
4.17	1
4.175	1
4.18	4
4.185	6
4.19	6
4.195	6
4.2	4
4.205	4
4.21	3
4.215	8
4.22	6
4.225	3
4.23	6
4.235	9
4.24	8
4.245	5
4.25	7
4.255	8
4.26	9
4.265	4
4.27	8
4.275	5
4.28	5
4.285	5
4.29	7
4.295	3
4.3	6
4.305	8
4.31	2
4.315	10
4.32	6
4.325	3
4.33	4
4.335	4
4.34	4
4.345	5
4.35	6
4.355	7
4.36	6
4.365	6
4.37	3
4.375	5
4.38	4
4.385	8
4.39	4
4.395	5
4.4	4
4.405	6
4.41	8
4.415	5
4.42	7
4.425	4
4.43	5
4.435	8
4.44	7
4.445	5
4.45	6
4.455	7
4.46	8
4.465	6
4.47	2
4.475	6
4.48	5
4.485	8
4.49	9
4.495	11
4.5	8
4.505	5
4.51	7
4.515	1
4.52	4
4.525	5
4.53	5
4.535	10
4.54	8
4.545	1
4.55	7
4.555	1
4.56	3
4.565	6
4.57	8
4.575	8
4.58	4
4.585	6
4.59	3
4.595	5
4.6	4
4.605	10
4.61	2
4.615	7
4.62	7
4.625	3
4.63	5
4.635	4
4.64	3
4.645	6
4.65	6
4.655	6
4.66	6
4.665	5
4.67	5
4.675	4
4.68	8
4.685	7
4.69	2
4.695	2
4.7	7
4.705	7
4.71	4
4.715	8
4.72	2
4.725	6
4.73	6
4.735	6
4.74	7
4.745	2
4.75	3
4.755	4
4.76	8
4.765	6
4.77	4
4.775	7
4.78	2
4.785	7
4.79	4
4.795	7
4.8	6
4.805	5
4.81	7
4.815	3
4.82	7
4.825	7
4.83	6
4.835	4
4.84	10
4.845	5
4.85	3
4.855	5
4.86	6
4.865	3
4.87	6
4.875	5
4.88	5
4.885	4
4.89	7
4.895	3
4.9	7
4.905	7
4.91	4
4.915	5
4.92	8
4.925	3
4.93	6
4.935	6
4.94	9
4.945	6
4.95	7
4.955	4
4.96	12
4.965	4
4.97	4
4.975	6
4.98	5
4.985	7
4.99	5
4.995	4
5	5
5.005	1
5.01	5
5.015	4
5.02	7
5.025	4
5.03	3
5.035	3
5.04	5
5.045	7
5.05	5
5.055	4
5.06	5
5.065	1
5.07	5
5.075	7
5.08	10
5.085	8
5.09	9
5.095	7
5.1	6
5.105	7
5.11	3
5.115	4
5.12	8
5.125	3
5.13	7
5.135	7
5.14	7
5.145	7
5.15	4
5.155	4
5.16	1
5.165	1
5.17	7
5.175	7
5.18	4
5.185	3
5.19	8
5.195	8
5.2	8
5.205	6
5.21	9
5.215	9
5.22	5
5.225	4
5.23	7
5.235	5
5.24	11
5.245	5
5.25	1
5.255	4
5.26	6
5.265	7
5.27	5
5.275	7
5.28	4
5.285	4
5.29	4
5.295	6
5.3	2
5.305	8
5.31	3
5.315	10
5.32	6
5.325	6
5.33	10
5.335	4
5.34	7
5.345	2
5.35	5
5.355	6
5.36	9
5.365	3
5.37	5
5.375	7
5.38	5
5.385	4
5.39	8
5.395	7
5.4	5
5.405	5
5.41	12
5.415	3
5.42	3
5.425	4
5.43	5
5.435	2
5.44	4
5.445	9
5.45	0
5.455	5
5.46	3
5.465	2
5.47	3
5.475	7
5.48	3
5.485	5
5.49	9
5.495	10
5.5	4
5.505	8
5.51	4
5.515	6
5.52	4
5.525	12
5.53	3
5.535	9
5.54	11
5.545	5
5.55	1
5.555	2
5.56	1
5.565	6
5.57	1
5.575	6
5.58	4
5.585	9
5.59	2
5.595	4
5.6	4
5.605	4
5.61	4
5.615	3
5.62	2
5.625	5
5.63	6
5.635	6
5.64	4
5.645	6
5.65	5
5.655	2
5.66	8
5.665	5
5.67	7
5.675	4
5.68	6
5.685	1
5.69	4
5.695	4
5.7	8
5.705	6
5.71	3
5.715	5
5.72	5
5.725	5
5.73	3
5.735	6
5.74	3
5.745	6
5.75	7
5.755	7
5.76	4
5.765	1
5.77	5
5.775	4
5.78	4
5.785	4
5.79	6
5.795	4
5.8	2
5.805	7
5.81	2
5.815	5
5.82	4
5.825	3
5.83	4
5.835	3
5.84	3
5.845	2
5.85	2
5.855	4
5.86	6
5.865	4
5.87	7
5.875	2
5.88	5
5.885	6
5.89	5
5.895	5
5.9	7
5.905	8
5.91	5
5.915	4
5.92	6
5.925	1
5.93	3
5.935	4
5.94	4
5.945	1
5.95	8
5.955	8
5.96	2
5.965	3
5.97	4
5.975	2
5.98	3
5.985	6
5.99	9
5.995	3
6	7
6.005	4
6.01	3
6.015	4
6.02	5
6.025	2
6.03	2
6.035	5
6.04	9
6.045	7
6.05	3
6.055	6
6.06	1
6.065	6
6.07	2
6.075	4
6.08	2
6.085	2
6.09	5
6.095	1
6.1	2
6.105	3
6.11	7
6.115	4
6.12	7
6.125	3
6.13	2
6.135	6
6.14	1
6.145	3
6.15	5
6.155	6
6.16	4
6.165	4
6.17	4
6.175	4
6.18	4
6.185	4
6.19	5
6.195	2
6.2	5
6.205	3
6.21	8
6.215	4
6.22	3
6.225	4
6.23	3
6.235	0
6.24	3
6.245	3
6.25	0
6.255	9
6.26	2
6.265	3
6.27	4
6.275	5
6.28	5
6.285	2
6.29	4
6.295	6
6.3	4
6.305	7
6.31	6
6.315	5
6.32	8
6.325	4
6.33	2
6.335	4
6.34	8
6.345	3
6.35	6
6.355	6
6.36	3
6.365	3
6.37	1
6.375	6
6.38	3
6.385	2
6.39	2
6.395	4
6.4	7
6.405	3
6.41	1
6.415	7
6.42	8
6.425	4
6.43	5
6.435	0
6.44	3
6.445	4
6.45	1
6.455	4
6.46	3
6.465	7
6.47	3
6.475	4
6.48	3
6.485	2
6.49	6
6.495	4
6.5	2
6.505	2
6.51	4
6.515	3
6.52	5
6.525	2
6.53	3
6.535	7
6.54	2
6.545	4
6.55	3
6.555	5
6.56	2
6.565	3
6.57	5
6.575	4
6.58	2
6.585	5
6.59	1
6.595	3
6.6	7
6.605	3
6.61	3
6.615	4
6.62	4
6.625	1
6.63	2
6.635	5
6.64	4
6.645	2
6.65	7
6.655	7
6.66	3
6.665	4
6.67	1
6.675	1
6.68	0
6.685	3
6.69	6
6.695	2
6.7	4
6.705	2
6.71	4
6.715	5
6.72	1
6.725	1
6.73	1
6.735	1
6.74	2
6.745	4
6.75	2
6.755	3
6.76	5
6.765	3
6.77	2
6.775	3
6.78	1
6.785	0
6.79	3
6.795	4
6.8	1
6.805	4
6.81	3
6.815	3
6.82	2
6.825	2
6.83	2
6.835	4
6.84	1
6.845	6
6.85	3
6.855	3
6.86	8
6.865	3
6.87	2
6.875	2
6.88	4
6.885	3
6.89	0
6.895	0
6.9	4
6.905	2
6.91	3
6.915	3
6.92	0
6.925	5
6.93	3
6.935	1
6.94	3
6.945	4
6.95	3
6.955	4
6.96	2
6.965	3
6.97	2
6.975	3
6.98	2
6.985	6
6.99	1
6.995	2
7	2
7.005	1
7.01	3
7.015	2
7.02	2
7.025	3
7.03	3
7.035	5
7.04	2
7.045	0
7.05	1
7.055	2
7.06	1
7.065	6
7.07	2
7.075	1
7.08	3
7.085	3
7.09	0
7.095	2
7.1	2
7.105	1
7.11	2
7.115	2
7.12	3
7.125	4
7.13	3
7.135	7
7.14	3
7.145	0
7.15	4
7.155	2
7.16	1
7.165	1
7.17	2
7.175	1
7.18	3
7.185	5
7.19	2
7.195	2
7.2	1
7.205	0
7.21	3
7.215	1
7.22	2
7.225	0
7.23	0
7.235	2
7.24	1
7.245	3
7.25	3
7.255	1
7.26	3
7.265	0
7.27	5
7.275	1
7.28	0
7.285	2
7.29	3
7.295	3
7.3	2
7.305	0
7.31	2
7.315	2
7.32	2
7.325	0
7.33	4
7.335	3
7.34	0
7.345	2
7.35	5
7.355	3
7.36	2
7.365	1
7.37	1
7.375	4
7.38	1
7.385	5
7.39	3
7.395	2
7.4	2
7.405	2
7.41	4
7.415	4
7.42	0
7.425	0
7.43	5
7.435	2
7.44	0
7.445	1
7.45	0
7.455	6
7.46	3
7.465	1
7.47	1
7.475	2
7.48	2
7.485	3
7.49	0
7.495	1
7.5	4
7.505	4
7.51	2
7.515	1
7.52	1
7.525	3
7.53	4
7.535	2
7.54	0
7.545	2
7.55	3
7.555	3
7.56	2
7.565	1
7.57	3
7.575	2
7.58	0
7.585	2
7.59	6
7.595	0
7.6	2
7.605	1
7.61	2
7.615	1
7.62	3
7.625	1
7.63	1
7.635	2
7.64	0
7.645	3
7.65	4
7.655	2
7.66	2
7.665	2
7.67	3
7.675	0
7.68	1
7.685	1
7.69	2
7.695	2
7.7	2
7.705	0
7.71	0
7.715	4
7.72	1
7.725	0
7.73	0
7.735	1
7.74	0
7.745	2
7.75	4
7.755	2
7.76	2
7.765	2
7.77	1
7.775	3
7.78	4
7.785	1
7.79	2
7.795	2
7.8	0
7.805	4
7.81	0
7.815	1
7.82	1
7.825	2
7.83	3
7.835	1
7.84	1
7.845	2
7.85	0
7.855	5
7.86	5
7.865	1
7.87	1
7.875	2
7.88	2
7.885	1
7.89	0
7.895	5
7.9	0
7.905	2
7.91	0
7.915	0
7.92	3
7.925	0
7.93	0
7.935	1
7.94	0
7.945	2
7.95	0
7.955	1
7.96	1
7.965	1
7.97	1
7.975	1
7.98	0
7.985	2
7.99	1
7.995	0
8	1
8.005	2
8.01	4
8.015	4
8.02	2
8.025	2
8.03	2
8.035	0
8.04	2
8.045	0
8.05	1
8.055	2
8.06	1
8.065	2
8.07	0
8.075	2
8.08	1
8.085	1
8.09	1
8.095	3
8.1	2
8.105	0
8.11	0
8.115	1
8.12	1
8.125	0
8.13	1
8.135	0
8.14	2
8.145	1
8.15	2
8.155	1
8.16	0
8.165	0
8.17	1
8.175	1
8.18	1
8.185	1
8.19	1
8.195	1
8.2	1
8.205	1
8.21	2
8.215	3
8.22	1
8.225	1
8.23	0
8.235	3
8.24	2
8.245	1
8.25	1
8.255	1
8.26	1
8.265	1
8.27	1
8.275	1
8.28	1
8.285	1
8.29	2
8.295	2
8.3	0
8.305	0
8.31	0
8.315	1
8.32	0
8.325	0
8.33	1
8.335	0
8.34	2
8.345	1
8.35	1
8.355	0
8.36	0
8.365	0
8.37	1
8.375	0
8.38	1
8.385	2
8.39	1
8.395	1
8.4	0
8.405	0
8.41	0
8.415	1
8.42	1
8.425	1
8.43	1
8.435	1
8.44	0
8.445	1
8.45	1
8.455	2
8.46	2
8.465	1
8.47	3
8.475	2
8.48	3
8.485	2
8.49	0
8.495	1
8.5	1
8.505	0
8.51	1
8.515	2
8.52	0
8.525	0
8.53	0
8.535	0
8.54	2
8.545	2
8.55	0
8.555	0
8.56	1
8.565	1
8.57	1
8.575	0
8.58	1
8.585	1
8.59	1
8.595	1
8.6	0
8.605	2
8.61	0
8.615	0
8.62	1
8.625	1
8.63	0
8.635	0
8.64	0
8.645	0
8.65	1
8.655	0
8.66	1
8.665	2
8.67	0
8.675	0
8.68	0
8.685	1
8.69	0
8.695	1
8.7	1
8.705	1
8.71	0
8.715	1
8.72	1
8.725	1
8.73	0
8.735	1
8.74	1
8.745	1
8.75	0
8.755	0
8.76	0
8.765	2
8.77	2
8.775	1
8.78	0
8.785	2
8.79	1
8.795	0
8.8	2
8.805	0
8.81	0
8.815	1
8.82	0
8.825	1
8.83	1
8.835	1
8.84	0
8.845	2
8.85	2
8.855	0
8.86	1
8.865	0
8.87	0
8.875	2
8.88	0
8.885	1
8.89	1
8.895	1
8.9	0
8.905	1
8.91	1
8.915	1
8.92	0
8.925	1
8.93	0
8.935	1
8.94	0
8.945	0
8.95	0
8.955	2
8.96	1
8.965	1
8.97	0
8.975	1
8.98	1
8.985	0
8.99	0
8.995	0
9	1
9.005	0
9.01	1
9.015	1
9.02	3
9.025	1
9.03	0
9.035	1
9.04	0
9.045	1
9.05	1
9.055	0
9.06	2
9.065	1
9.07	0
9.075	1
9.08	0
9.085	0
9.09	1
9.095	0
9.1	0
9.105	1
9.11	1
9.115	1
9.12	0
9.125	2
9.13	1
9.135	2
9.14	0
9.145	0
9.15	0
9.155	1
9.16	0
9.165	0
9.17	0
9.175	0
9.18	0
9.185	0
9.19	0
9.195	1
9.2	1
9.205	0
9.21	0
9.215	0
9.22	2
9.225	0
9.23	1
9.235	1
9.24	0
9.245	1
9.25	1
9.255	0
9.26	0
9.265	1
9.27	0
9.275	1
9.28	0
9.285	0
9.29	0
9.295	0
9.3	0
9.305	0
9.31	0
9.315	0
9.32	1
9.325	1
9.33	1
9.335	2
9.34	0
9.345	0
9.35	0
9.355	1
9.36	0
9.365	0
9.37	0
9.375	0
9.38	0
9.385	0
9.39	0
9.395	0
9.4	3
9.405	1
9.41	0
9.415	0
9.42	0
9.425	1
9.43	0
9.435	0
9.44	0
9.445	1
9.45	0
9.455	1
9.46	0
9.465	0
9.47	0
9.475	0
9.48	0
9.485	0
9.49	1
9.495	1
9.5	1
9.505	0
9.51	0
9.515	0
9.52	0
9.525	0
9.53	0
9.535	0
9.54	0
9.545	0
9.55	3
9.555	0
9.56	1
9.565	0
9.57	1
9.575	1
9.58	1
9.585	1
9.59	0
9.595	0
9.6	0
9.605	0
9.61	2
9.615	0
9.62	0
9.625	0
9.63	1
9.635	0
9.64	0
9.645	0
9.65	0
9.655	0
9.66	0
9.665	0
9.67	0
9.675	1
9.68	0
9.685	0
9.69	0
9.695	0
9.7	1
9.705	0
9.71	0
9.715	1
9.72	0
9.725	0
9.73	1
9.735	0
9.74	0
9.745	0
9.75	0
9.755	0
9.76	0
9.765	0
9.77	1
9.775	0
9.78	2
9.785	0
9.79	1
9.795	0
9.8	0
9.805	2
9.81	1
9.815	0
9.82	0
9.825	0
9.83	1
9.835	0
9.84	0
9.845	0
9.85	0
9.855	0
9.86	0
9.865	0
9.87	0
9.875	0
9.88	0
9.885	0
9.89	0
9.895	0
9.9	0
9.905	0
9.91	0
9.915	1
9.92	0
9.925	1
9.93	0
9.935	0
9.94	0
9.945	1
9.95	2
9.955	0
9.96	0
9.965	0
9.97	0
9.975	0
9.98	0
9.985	0
9.99	2
9.995	1
10	0
10.005	0
10.01	1
10.015	1
10.02	0
10.025	0
10.03	1
10.035	0
10.04	0
10.045	0
10.05	0
10.055	0
10.06	0
10.065	0
10.07	1
10.075	1
10.08	0
10.085	0
10.09	1
10.095	1
10.1	0
10.105	0
10.11	0
10.115	0
10.12	0
10.125	0
10.13	0
10.135	1
10.14	1
10.145	0
10.15	1
10.155	0
10.16	1
10.165	0
10.17	1
10.175	0
10.18	1
10.185	0
10.19	0
10.195	0
10.2	0
10.205	1
10.21	0
10.215	0
10.22	0
10.225	0
10.23	0
10.235	0
10.24	0
10.245	0
10.25	0
10.255	0
10.26	0
10.265	1
10.27	0
10.275	0
10.28	0
10.285	0
10.29	0
10.295	0
10.3	3
10.305	0
10.31	2
10.315	0
10.32	0
10.325	0
10.33	0
10.335	0
10.34	0
10.345	0
10.35	0
10.355	0
10.36	0
10.365	0
10.37	0
10.375	0
10.38	0
10.385	0
10.39	0
10.395	0
10.4	0
10.405	0
10.41	0
10.415	0
10.42	1
10.425	0
10.43	0
10.435	0
10.44	1
10.445	1
10.45	0
10.455	0
10.46	1
10.465	0
10.47	0
10.475	0
10.48	0
10.485	1
10.49	0
10.495	0
10.5	0
10.505	0
10.51	0
10.515	0
10.52	0
10.525	0
10.53	0
10.535	1
10.54	0
10.545	1
10.55	1
10.555	1
10.56	0
10.565	0
10.57	0
10.575	0
10.58	0
10.585	0
10.59	0
10.595	0
10.6	0
10.605	0
10.61	0
10.615	0
10.62	0
10.625	0
10.63	1
10.635	0
10.64	0
10.645	0
10.65	0
10.655	1
10.66	0
10.665	0
10.67	0
10.675	0
10.68	0
10.685	0
10.69	0
10.695	0
10.7	1
10.705	0
10.71	0
10.715	0
10.72	0
10.725	0
10.73	0
10.735	0
10.74	0
10.745	0
10.75	0
10.755	0
10.76	0
10.765	1
10.77	0
10.775	0
10.78	0
10.785	0
10.79	0
10.795	0
10.8	0
10.805	0
10.81	0
10.815	0
10.82	0
10.825	0
10.83	0
10.835	0
10.84	0
10.845	0
10.85	0
10.855	0
10.86	0
10.865	0
10.87	0
10.875	0
10.88	0
10.885	1
10.89	0
10.895	0
10.9	2
10.905	0
10.91	1
10.915	0
10.92	0
10.925	0
10.93	0
10.935	0
10.94	0
10.945	0
10.95	0
10.955	0
10.96	0
10.965	0
10.97	0
10.975	0
10.98	0
10.985	0
10.99	1
10.995	0
11	1
11.005	0
11.01	0
11.015	0
11.02	0
11.025	1
11.03	0
11.035	0
11.04	0
11.045	0
11.05	0
11.055	0
11.06	1
11.065	0
11.07	0
11.075	0
11.08	0
11.085	0
11.09	0
11.095	0
11.1	0
11.105	0
11.11	0
11.115	0
11.12	1
11.125	0
11.13	0
11.135	0
11.14	0
11.145	0
11.15	0
11.155	0
11.16	0
11.165	1
11.17	1
11.175	0
11.18	0
11.185	0
11.19	0
11.195	0
11.2	0
11.205	0
11.21	0
11.215	0
11.22	0
11.225	0
11.23	0
11.235	0
11.24	0
11.245	1
11.25	0
11.255	1
11.26	0
11.265	0
11.27	0
11.275	0
11.28	0
11.285	0
11.29	0
11.295	0
11.3	0
11.305	0
11.31	0
11.315	0
11.32	0
11.325	1
11.33	1
11.335	0
11.34	0
11.345	0
11.35	0
11.355	0
11.36	0
11.365	0
11.37	0
11.375	0
11.38	0
11.385	0
11.39	0
11.395	0
11.4	0
11.405	0
11.41	1
11.415	0
11.42	0
11.425	0
11.43	0
11.435	0
11.44	0
11.445	0
11.45	0
11.455	0
11.46	0
11.465	0
11.47	0
11.475	0
11.48	0
11.485	0
11.49	0
11.495	0
11.5	1
11.505	1
11.51	0
11.515	0
11.52	0
11.525	0
11.53	0
11.535	0
11.54	0
11.545	0
11.55	0
11.555	0
11.56	0
11.565	0
11.57	1
11.575	0
11.58	0
11.585	0
11.59	1
11.595	0
11.6	0
11.605	0
11.61	0
11.615	1
11.62	0
11.625	0
11.63	0
11.635	1
11.64	0
11.645	0
11.65	0
11.655	0
11.66	1
11.665	0
11.67	0
11.675	0
11.68	0
11.685	0
11.69	0
11.695	0
11.7	0
11.705	0
11.71	0
11.715	0
11.72	1
11.725	0
11.73	0
11.735	0
11.74	0
11.745	0
11.75	0
11.755	0
11.76	0
11.765	1
11.77	0
11.775	0
11.78	0
11.785	0
11.79	0
11.795	0
11.8	0
11.805	0
11.81	0
11.815	1
11.82	0
11.825	0
11.83	0
11.835	0
11.84	0
11.845	1
11.85	0
11.855	0
11.86	0
11.865	0
11.87	0
11.875	0
11.88	0
11.885	0
11.89	0
11.895	0
11.9	0
11.905	0
11.91	0
11.915	0
11.92	0
11.925	0
11.93	2
11.935	0
11.94	0
11.945	0
11.95	0
11.955	0
11.96	0
11.965	0
11.97	0
11.975	0
11.98	0
11.985	0
11.99	0
11.995	0
12	0
12.005	0
12.01	0
12.015	0
12.02	0
12.025	0
12.03	0
12.035	0
12.04	0
12.045	0
12.05	0
12.055	0
12.06	0
12.065	0
12.07	0
12.075	0
12.08	0
12.085	0
12.09	0
12.095	0
12.1	0
12.105	0
12.11	0
12.115	0
12.12	0
12.125	0
12.13	0
12.135	0
12.14	1
12.145	0
12.15	0
12.155	0
12.16	0
12.165	0
12.17	0
12.175	0
12.18	0
12.185	0
12.19	0
12.195	0
12.2	0
12.205	0
12.21	0
12.215	1
12.22	0
12.225	0
12.23	0
12.235	0
12.24	0
12.245	0
12.25	0
12.255	0
12.26	0
12.265	0
12.27	0
12.275	0
12.28	0
12.285	0
12.29	0
12.295	0
12.3	1
12.305	0
12.31	0
12.315	0
12.32	0
12.325	0
12.33	0
12.335	0
12.34	0
12.345	0
12.35	0
12.355	0
12.36	0
12.365	0
12.37	0
12.375	0
12.38	0
12.385	0
12.39	0
12.395	0
12.4	0
12.405	0
12.41	0
12.415	0
12.42	0
12.425	0
12.43	0
12.435	0
12.44	0
12.445	0
12.45	0
12.455	0
12.46	0
12.465	0
12.47	0
12.475	0
12.48	0
12.485	1
12.49	0
12.495	0
12.5	0
12.505	0
12.51	1
12.515	1
12.52	0
12.525	0
12.53	0
12.535	0
12.54	0
12.545	0
12.55	0
12.555	0
12.56	0
12.565	0
12.57	0
12.575	0
12.58	0
12.585	0
12.59	0
12.595	0
12.6	0
12.605	0
12.61	0
12.615	0
12.62	0
12.625	0
12.63	0
12.635	0
12.64	0
12.645	0
12.65	0
12.655	0
12.66	0
12.665	0
12.67	0
12.675	0
12.68	0
12.685	0
12.69	0
12.695	0
12.7	0
12.705	0
12.71	0
12.715	0
12.72	0
12.725	0
12.73	0
12.735	0
12.74	0
12.745	0
12.75	0
12.755	0
12.76	0
12.765	0
12.77	0
12.775	0
12.78	0
12.785	1
12.79	0
12.795	0
12.8	0
12.805	0
12.81	0
12.815	0
12.82	0
12.825	0
12.83	0
12.835	0
12.84	0
12.845	0
12.85	0
12.855	0
12.86	0
12.865	0
12.87	0
12.875	0
12.88	0
12.885	0
12.89	0
12.895	0
12.9	0
12.905	0
12.91	0
12.915	0
12.92	0
12.925	0
12.93	0
12.935	0
12.94	0
12.945	0
12.95	0
12.955	0
12.96	0
12.965	0
12.97	0
12.975	0
12.98	0
12.985	0
12.99	0
12.995	0
13	0
13.005	0
13.01	0
13.015	0
13.02	0
13.025	0
13.03	0
13.035	0
13.04	0
13.045	0
13.05	0
13.055	0
13.06	0
13.065	0
13.07	0
13.075	0
13.08	0
13.085	0
13.09	0
13.095	0
13.1	0
13.105	0
13.11	0
13.115	0
13.12	0
13.125	0
13.13	0
13.135	0
13.14	0
13.145	0
13.15	0
13.155	0
13.16	0
13.165	0
13.17	0
13.175	0
13.18	0
13.185	1
13.19	0
13.195	0
13.2	0
13.205	0
13.21	0
13.215	0
13.22	0
13.225	0
13.23	0
13.235	0
13.24	0
13.245	0
13.25	0
13.255	0
13.26	0
13.265	0
13.27	0
13.275	0
13.28	0
13.285	0
13.29	0
13.295	0
13.3	0
13.305	0
13.31	0
13.315	0
13.32	0
13.325	0
13.33	0
13.335	0
13.34	0
13.345	0
13.35	0
13.355	0
13.36	0
13.365	0
13.37	0
13.375	0
13.38	0
13.385	0
13.39	0
13.395	0
13.4	0
13.405	0
13.41	0
13.415	0
13.42	0
13.425	0
13.43	0
13.435	0
13.44	0
13.445	0
13.45	0
13.455	0
13.46	0
13.465	0
13.47	0
13.475	0
13.48	0
13.485	1
13.49	0
13.495	0
13.5	0
13.505	0
13.51	0
13.515	0
13.52	0
13.525	0
13.53	0
13.535	0
13.54	0
13.545	0
13.55	0
13.555	0
13.56	0
13.565	0
13.57	0
13.575	0
13.58	1
13.585	0
13.59	0
13.595	0
13.6	0
13.605	0
13.61	0
13.615	0
13.62	0
13.625	0
13.63	0
13.635	0
13.64	0
13.645	0
13.65	0
13.655	0
13.66	0
13.665	0
13.67	0
13.675	0
13.68	0
13.685	0
13.69	0
13.695	0
13.7	0
13.705	0
13.71	0
13.715	0
13.72	1
13.725	0
13.73	0
13.735	0
13.74	0
13.745	0
13.75	0
13.755	0
13.76	0
13.765	0
13.77	0
13.775	0
13.78	0
13.785	0
13.79	0
13.795	0
13.8	0
13.805	1
13.81	0
13.815	0
13.82	0
13.825	0
13.83	0
13.835	0
13.84	0
13.845	1
13.85	0
13.855	0
13.86	0
13.865	0
13.87	0
13.875	0
13.88	0
13.885	0
13.89	0
13.895	0
13.9	0
13.905	0
13.91	0
13.915	0
13.92	0
13.925	0
13.93	0
13.935	0
13.94	0
13.945	0
13.95	0
13.955	0
13.96	0
13.965	0
13.97	0
13.975	0
13.98	0
13.985	0
13.99	0
13.995	0
14	0
14.005	0
14.01	0
14.015	0
14.02	0
14.025	0
14.03	0
14.035	0
14.04	0
14.045	0
14.05	0
14.055	0
14.06	0
14.065	0
14.07	0
14.075	0
14.08	0
14.085	0
14.09	0
14.095	0
14.1	0
14.105	0
14.11	0
14.115	0
14.12	0
14.125	0
14.13	0
14.135	0
14.14	0
14.145	0
14.15	0
14.155	0
14.16	0
14.165	0
14.17	0
14.175	0
14.18	0
14.185	0
14.19	0
14.195	0
14.2	0
14.205	0
14.21	0
14.215	0
14.22	0
14.225	0
14.23	0
14.235	0
14.24	0
14.245	0
14.25	0
14.255	0
14.26	0
14.265	0
14.27	0
14.275	0
14.28	0
14.285	0
14.29	0
14.295	0
14.3	0
14.305	0
14.31	0
14.315	0
14.32	0
14.325	0
14.33	0
14.335	0
14.34	0
14.345	0
14.35	0
14.355	0
14.36	0
14.365	0
14.37	0
14.375	0
14.38	0
14.385	0
14.39	0
14.395	0
14.4	0
14.405	0
14.41	0
14.415	0
14.42	0
14.425	0
14.43	0
14.435	0
14.44	0
14.445	0
14.45	0
14.455	0
14.46	0
14.465	0
14.47	0
14.475	0
14.48	0
14.485	0
14.49	0
14.495	0
14.5	0
14.505	0
14.51	0
14.515	0
14.52	0
14.525	0
14.53	0
14.535	0
14.54	0
14.545	0
14.55	0
14.555	0
14.56	0
14.565	0
14.57	0
14.575	0
14.58	0
14.585	0
14.59	0
14.595	1
14.6	0
14.605	0
14.61	0
14.615	0
14.62	0
14.625	0
14.63	0
14.635	0
14.64	0
14.645	0
14.65	0
14.655	0
14.66	0
14.665	0
14.67	0
14.675	0
14.68	0
14.685	0
14.69	0
14.695	0
14.7	0
14.705	0
14.71	0
14.715	0
14.72	0
14.725	0
14.73	0
14.735	0
14.74	0
14.745	0
14.75	0
14.755	0
14.76	0
14.765	0
14.77	0
14.775	0
14.78	0
14.785	0
14.79	0
14.795	0
14.8	0
14.805	0
14.81	0
14.815	0
14.82	0
14.825	0
14.83	0
14.835	0
14.84	0
14.845	0
14.85	0
14.855	0
14.86	0
14.865	0
14.87	0
14.875	0
14.88	0
14.885	0
14.89	0
14.895	0
14.9	0
14.905	0
14.91	0
14.915	0
14.92	0
14.925	0
14.93	0
14.935	0
14.94	0
14.945	0
14.95	0
14.955	0
14.96	0
14.965	0
14.97	0
14.975	0
14.98	0
14.985	0
14.99	0
14.995	0
15	0
15.005	0
15.01	0
15.015	0
15.02	0
15.025	0
15.03	0
15.035	0
15.04	0
15.045	0
15.05	0
15.055	0
15.06	0
15.065	0
15.07	0
15.075	0
15.08	0
15.085	0
15.09	0
15.095	0
15.1	0
15.105	0
15.11	0
15.115	0
15.12	0
15.125	0
15.13	0
15.135	1
15.14	0
15.145	0
15.15	0
15.155	0
15.16	0
15.165	0
15.17	0
15.175	0
15.18	0
15.185	0
15.19	0
15.195	0
15.2	0
15.205	0
15.21	0
15.215	0
15.22	0
15.225	0
15.23	0
15.235	0
15.24	0
15.245	0
15.25	0
15.255	0
15.26	0
15.265	0
15.27	0
15.275	0
15.28	0
15.285	0
15.29	0
15.295	0
15.3	0
15.305	0
15.31	0
15.315	0
15.32	0
15.325	0
15.33	0
15.335	0
15.34	0
15.345	0
15.35	0
15.355	0
15.36	0
15.365	0
15.37	0
15.375	0
15.38	0
15.385	0
15.39	0
15.395	0
15.4	0
15.405	0
15.41	0
15.415	0
15.42	0
15.425	0
15.43	0
15.435	0
15.44	0
15.445	0
15.45	0
15.455	0
15.46	0
15.465	0
15.47	0
15.475	0
15.48	0
15.485	0
15.49	0
15.495	0
15.5	0
15.505	0
15.51	0
15.515	0
15.52	0
15.525	0
15.53	0
15.535	0
15.54	0
15.545	0
15.55	0
15.555	0
15.56	0
15.565	0
15.57	0
15.575	0
15.58	0
15.585	0
15.59	0
15.595	0
15.6	0
15.605	0
15.61	0
15.615	0
15.62	0
15.625	0
15.63	0
15.635	0
15.64	0
15.645	0
15.65	0
15.655	0
15.66	0
15.665	0
15.67	0
15.675	0
15.68	0
15.685	0
15.69	0
15.695	0
15.7	0
15.705	0
15.71	0
15.715	0
15.72	0
15.725	0
15.73	0
15.735	0
15.74	0
15.745	0
15.75	0
15.755	0
15.76	0
15.765	0
15.77	0
15.775	0
15.78	0
15.785	0
15.79	0
15.795	0
15.8	0
15.805	0
15.81	0
15.815	0
15.82	0
15.825	0
15.83	0
15.835	0
15.84	0
15.845	0
15.85	0
15.855	0
15.86	0
15.865	0
15.87	0
15.875	0
15.88	0
15.885	0
15.89	0
15.895	0
15.9	0
15.905	0
15.91	0
15.915	0
15.92	0
15.925	0
15.93	0
15.935	0
15.94	0
15.945	0
15.95	0
15.955	0
15.96	0
15.965	0
15.97	0
15.975	0
15.98	0
15.985	0
15.99	0
15.995	0
16	0
16.005	0
16.01	0
16.015	0
16.02	0
16.025	0
16.03	0
16.035	0
16.04	0
16.045	0
16.05	0
16.055	0
16.06	0
16.065	0
16.07	0
16.075	0
16.08	0
16.085	0
16.09	0
16.095	0
16.1	0
16.105	0
16.11	0
16.115	0
16.12	0
16.125	0
16.13	0
16.135	0
16.14	0
16.145	0
16.15	0
16.155	0
16.16	0
16.165	0
16.17	0
16.175	0
16.18	0
16.185	0
16.19	0
16.195	0
16.2	0
16.205	0
16.21	0
16.215	0
16.22	0
16.225	0
16.23	0
16.235	0
16.24	0
16.245	0
16.25	0
16.255	0
16.26	0
16.265	0
16.27	0
16.275	0
16.28	0
16.285	0
16.29	0
16.295	0
16.3	0
16.305	0
16.31	0
16.315	0
16.32	0
16.325	0
16.33	0
16.335	0
16.34	0
16.345	0
16.35	0
16.355	0
16.36	0
16.365	0
16.37	0
16.375	0
16.38	0
16.385	0
16.39	0
16.395	0
16.4	0
16.405	0
16.41	0
16.415	0
16.42	0
16.425	0
16.43	0
16.435	0
16.44	0
16.445	0
16.45	0
16.455	0
16.46	0
16.465	0
16.47	0
16.475	0
16.48	0
16.485	0
16.49	0
16.495	0
16.5	0
16.505	0
16.51	0
16.515	0
16.52	0
16.525	0
16.53	0
16.535	0
16.54	0
16.545	0
16.55	0
16.555	0
16.56	0
16.565	0
16.57	0
16.575	0
16.58	0
16.585	0
16.59	0
16.595	0
16.6	0
16.605	0
16.61	0
16.615	0
16.62	0
16.625	0
16.63	0
16.635	0
16.64	0
16.645	0
16.65	0
16.655	0
16.66	0
16.665	0
16.67	0
16.675	0
16.68	0
16.685	0
16.69	0
16.695	0
16.7	0
16.705	0
16.71	0
16.715	0
16.72	0
16.725	0
16.73	0
16.735	0
16.74	0
16.745	0
16.75	0
16.755	0
16.76	0
16.765	0
16.77	0
16.775	0
16.78	0
16.785	0
16.79	0
16.795	0
16.8	0
16.805	0
16.81	0
16.815	0
16.82	0
16.825	0
16.83	0
16.835	0
16.84	0
16.845	0
16.85	0
16.855	0
16.86	0
16.865	0
16.87	0
16.875	0
16.88	0
16.885	0
16.89	0
16.895	0
16.9	0
16.905	0
16.91	0
16.915	0
16.92	0
16.925	0
16.93	0
16.935	0
16.94	0
16.945	0
16.95	0
16.955	0
16.96	0
16.965	0
16.97	0
16.975	0
16.98	0
16.985	0
16.99	0
16.995	0
17	0
17.005	0
17.01	0
17.015	0
17.02	0
17.025	0
17.03	0
17.035	0
17.04	0
17.045	0
17.05	0
17.055	0
17.06	0
17.065	0
17.07	0
17.075	0
17.08	0
17.085	0
17.09	0
17.095	0
17.1	0
17.105	0
17.11	0
17.115	0
17.12	0
17.125	0
17.13	0
17.135	0
17.14	0
17.145	0
17.15	0
17.155	0
17.16	0
17.165	0
17.17	0
17.175	0
17.18	0
17.185	0
17.19	0
17.195	0
17.2	0
17.205	0
17.21	0
17.215	0
17.22	0
17.225	0
17.23	0
17.235	0
17.24	0
17.245	0
17.25	0
17.255	0
17.26	0
17.265	0
17.27	0
17.275	0
17.28	0
17.285	0
17.29	0
17.295	0
17.3	0
17.305	0
17.31	0
17.315	0
17.32	0
17.325	0
17.33	0
17.335	0
17.34	0
17.345	0
17.35	0
17.355	0
17.36	0
17.365	0
17.37	0
17.375	0
17.38	0
17.385	0
17.39	0
17.395	0
17.4	0
17.405	0
17.41	0
17.415	0
17.42	0
17.425	0
17.43	0
17.435	0
17.44	0
17.445	0
17.45	0
17.455	0
17.46	0
17.465	0
17.47	0
17.475	0
17.48	0
17.485	0
17.49	0
17.495	0
17.5	0
17.505	0
17.51	0
17.515	0
17.52	0
17.525	0
17.53	0
17.535	0
17.54	0
17.545	0
17.55	0
17.555	0
17.56	0
17.565	0
17.57	0
17.575	0
17.58	0
17.585	0
17.59	0
17.595	0
17.6	0
17.605	0
17.61	0
17.615	0
17.62	0
17.625	0
17.63	0
17.635	0
17.64	0
17.645	0
17.65	0
17.655	0
17.66	0
17.665	0
17.67	0
17.675	0
17.68	0
17.685	0
17.69	0
17.695	0
17.7	0
17.705	0
17.71	0
17.715	0
17.72	0
17.725	0
17.73	0
17.735	0
17.74	0
17.745	0
17.75	0
17.755	0
17.76	0
17.765	0
17.77	0
17.775	0
17.78	0
17.785	0
17.79	0
17.795	0
17.8	0
17.805	0
17.81	0
17.815	0
17.82	0
17.825	0
17.83	0
17.835	0
17.84	0
17.845	0
17.85	0
17.855	0
17.86	0
17.865	0
17.87	0
17.875	0
17.88	0
17.885	0
17.89	0
17.895	0
17.9	0
17.905	0
17.91	0
17.915	0
17.92	0
17.925	0
17.93	0
17.935	0
17.94	0
17.945	0
17.95	0
17.955	0
17.96	0
17.965	0
17.97	0
17.975	0
17.98	0
17.985	0
17.99	0
17.995	0
18	0
18.005	0
18.01	0
18.015	0
18.02	0
18.025	0
18.03	0
18.035	0
18.04	0
18.045	0
18.05	0
18.055	0
18.06	0
18.065	0
18.07	0
18.075	0
18.08	0
18.085	0
18.09	0
18.095	0
18.1	0
18.105	0
18.11	0
18.115	0
18.12	0
18.125	0
18.13	0
18.135	0
18.14	0
18.145	0
18.15	0
18.155	0
18.16	0
18.165	0
18.17	0
18.175	0
18.18	0
18.185	0
18.19	0
18.195	0
18.2	0
18.205	0
18.21	0
18.215	0
18.22	0
18.225	0
18.23	0
18.235	0
18.24	0
18.245	0
18.25	0
18.255	0
18.26	0
18.265	0
18.27	0
18.275	0
18.28	0
18.285	0
18.29	0
18.295	0
18.3	0
18.305	0
18.31	0
18.315	0
18.32	0
18.325	0
18.33	0
18.335	0
18.34	0
18.345	0
18.35	0
18.355	0
18.36	0
18.365	0
18.37	0
18.375	0
18.38	0
18.385	0
18.39	0
18.395	0
18.4	0
18.405	0
18.41	0
18.415	0
18.42	0
18.425	0
18.43	0
18.435	0
18.44	0
18.445	0
18.45	0
18.455	0
18.46	0
18.465	0
18.47	0
18.475	0
18.48	0
18.485	0
18.49	0
18.495	0
18.5	0
18.505	0
18.51	0
18.515	0
18.52	0
18.525	0
18.53	0
18.535	0
18.54	0
18.545	0
18.55	0
18.555	0
18.56	0
18.565	0
18.57	0
18.575	0
18.58	0
18.585	0
18.59	0
18.595	0
18.6	0
18.605	0
18.61	0
18.615	0
18.62	0
18.625	0
18.63	0
18.635	0
18.64	0
18.645	0
18.65	0
18.655	0
18.66	0
18.665	0
18.67	0
18.675	0
18.68	0
18.685	0
18.69	0
18.695	0
18.7	0
18.705	0
18.71	0
18.715	0
18.72	0
18.725	0
18.73	0
18.735	0
18.74	0
18.745	0
18.75	0
18.755	0
18.76	0
18.765	0
18.77	0
18.775	0
18.78	0
18.785	0
18.79	0
18.795	0
18.8	0
18.805	0
18.81	0
18.815	0
18.82	0
18.825	0
18.83	0
18.835	0
18.84	0
18.845	0
18.85	0
18.855	0
18.86	0
18.865	0
18.87	0
18.875	0
18.88	0
18.885	0
18.89	0
18.895	0
18.9	0
18.905	0
18.91	0
18.915	0
18.92	0
18.925	0
18.93	0
18.935	0
18.94	0
18.945	0
18.95	0
18.955	0
18.96	0
18.965	0
18.97	0
18.975	0
18.98	0
18.985	0
18.99	0
18.995	0
19	0
19.005	0
19.01	0
19.015	0
19.02	0
19.025	0
19.03	0
19.035	0
19.04	0
19.045	0
19.05	0
19.055	0
19.06	0
19.065	0
19.07	0
19.075	0
19.08	0
19.085	0
19.09	0
19.095	0
19.1	0
19.105	0
19.11	0
19.115	0
19.12	0
19.125	0
19.13	0
19.135	0
19.14	0
19.145	0
19.15	0
19.155	0
19.16	0
19.165	0
19.17	0
19.175	0
19.18	0
19.185	0
19.19	0
19.195	0
19.2	0
19.205	0
19.21	0
19.215	0
19.22	0
19.225	0
19.23	0
19.235	0
19.24	0
19.245	0
19.25	0
19.255	0
19.26	0
19.265	0
19.27	0
19.275	0
19.28	0
19.285	0
19.29	0
19.295	0
19.3	0
19.305	0
19.31	0
19.315	0
19.32	0
19.325	0
19.33	0
19.335	0
19.34	0
19.345	0
19.35	0
19.355	0
19.36	0
19.365	0
19.37	0
19.375	0
19.38	0
19.385	0
19.39	0
19.395	0
19.4	0
19.405	0
19.41	0
19.415	0
19.42	0
19.425	0
19.43	0
19.435	0
19.44	0
19.445	0
19.45	0
19.455	0
19.46	0
19.465	0
19.47	0
19.475	0
19.48	0
19.485	0
19.49	0
19.495	0
19.5	0
19.505	0
19.51	0
19.515	0
19.52	0
19.525	0
19.53	0
19.535	0
19.54	0
19.545	0
19.55	0
19.555	0
19.56	0
19.565	0
19.57	0
19.575	0
19.58	0
19.585	0
19.59	0
19.595	0
19.6	0
19.605	0
19.61	0
19.615	0
19.62	0
19.625	0
19.63	0
19.635	0
19.64	0
19.645	0
19.65	0
19.655	0
19.66	0
19.665	0
19.67	0
19.675	0
19.68	0
19.685	0
19.69	0
19.695	0
19.7	0
19.705	0
19.71	0
19.715	0
19.72	0
19.725	0
19.73	0
19.735	0
19.74	0
19.745	0
19.75	0
19.755	0
19.76	0
19.765	0
19.77	0
19.775	0
19.78	0
19.785	0
19.79	0
19.795	0
19.8	0
19.805	0
19.81	0
19.815	0
19.82	0
19.825	0
19.83	0
19.835	0
19.84	0
19.845	0
19.85	0
19.855	0
19.86	0
19.865	0
19.87	0
19.875	0
19.88	0
19.885	0
19.89	0
19.895	0
19.9	0
19.905	0
19.91	0
19.915	0
19.92	0
19.925	0
19.93	0
19.935	0
19.94	0
19.945	0
19.95	0
19.955	0
19.96	0
19.965	0
19.97	0
19.975	0
19.98	0
19.985	0
19.99	0
19.995	0
20	0
20.005	0
20.01	0
20.015	0
20.02	0
20.025	0
20.03	0
20.035	0
20.04	0
20.045	0
20.05	0
20.055	0
20.06	0
20.065	0
20.07	0
20.075	0
20.08	0
20.085	0
20.09	0
20.095	0
20.1	0
20.105	0
20.11	0
20.115	0
20.12	0
20.125	0
20.13	0
20.135	0
20.14	0
20.145	0
20.15	0
20.155	0
20.16	0
20.165	0
20.17	0
20.175	0
20.18	0
20.185	0
20.19	0
20.195	0
20.2	0
20.205	0
20.21	0
20.215	0
20.22	0
20.225	0
20.23	0
20.235	0
20.24	0
20.245	0
20.25	0
20.255	0
20.26	0
20.265	0
20.27	0
20.275	0
20.28	0
20.285	0
20.29	0
20.295	0
20.3	0
20.305	0
20.31	0
20.315	0
20.32	0
20.325	0
20.33	0
20.335	0
20.34	0
20.345	0
20.35	0
20.355	0
20.36	0
20.365	0
20.37	0
20.375	0
20.38	0
20.385	0
20.39	0
20.395	0
20.4	0
20.405	0
20.41	0
20.415	0
20.42	0
20.425	0
20.43	0
20.435	0
20.44	0
20.445	0
20.45	0
20.455	0
20.46	0
20.465	0
20.47	0
20.475	0
20.48	0
20.485	0
20.49	0
20.495	0
20.5	0
20.505	0
20.51	0
20.515	0
20.52	0
20.525	0
20.53	0
20.535	0
20.54	0
20.545	0
20.55	0
20.555	0
20.56	0
20.565	0
20.57	0
20.575	0
20.58	0
20.585	0
20.59	0
20.595	0
20.6	0
20.605	0
20.61	0
20.615	0
20.62	0
20.625	0
20.63	0
20.635	0
20.64	0
20.645	0
20.65	0
20.655	0
20.66	0
20.665	0
20.67	0
20.675	0
20.68	0
20.685	0
20.69	0
20.695	0
20.7	0
20.705	0
20.71	0
20.715	0
20.72	0
20.725	0
20.73	0
20.735	0
20.74	0
20.745	0
20.75	0
20.755	0
20.76	0
20.765	0
20.77	0
20.775	0
20.78	0
20.785	0
20.79	0
20.795	0
20.8	0
20.805	0
20.81	0
20.815	0
20.82	0
20.825	0
20.83	0
20.835	0
20.84	0
20.845	0
20.85	0
20.855	0
20.86	0
20.865	0
20.87	0
20.875	0
20.88	0
20.885	0
20.89	0
20.895	0
20.9	0
20.905	0
20.91	0
20.915	0
20.92	0
20.925	0
20.93	0
20.935	0
20.94	0
20.945	0
20.95	0
20.955	0
20.96	0
20.965	0
20.97	0
20.975	0
20.98	0
20.985	0
20.99	0
20.995	0
21	0
21.005	0
21.01	0
21.015	0
21.02	0
21.025	0
21.03	0
21.035	0
21.04	0
21.045	0
21.05	0
21.055	0
21.06	0
21.065	0
21.07	0
21.075	0
21.08	0
21.085	0
21.09	0
21.095	0
21.1	0
21.105	0
21.11	0
21.115	0
21.12	0
21.125	0
21.13	0
21.135	0
21.14	0
21.145	0
21.15	0
21.155	0
21.16	0
21.165	0
21.17	0
21.175	0
21.18	0
21.185	0
21.19	0
21.195	0
21.2	0
21.205	0
21.21	0
21.215	0
21.22	0
21.225	0
21.23	0
21.235	0
21.24	0
21.245	0
21.25	0
21.255	0
21.26	0
21.265	0
21.27	0
21.275	0
21.28	0
21.285	0
21.29	0
21.295	0
21.3	0
21.305	0
21.31	0
21.315	0
21.32	0
21.325	0
21.33	0
21.335	0
21.34	0
21.345	0
21.35	0
21.355	0
21.36	0
21.365	0
21.37	0
21.375	0
21.38	0
21.385	0
21.39	0
21.395	0
21.4	0
21.405	0
21.41	0
21.415	0
21.42	0
21.425	0
21.43	0
21.435	0
21.44	0
21.445	0
21.45	0
21.455	0
21.46	0
21.465	0
21.47	0
21.475	0
21.48	0
21.485	0
21.49	0
21.495	0
21.5	0
21.505	0
21.51	0
21.515	0
21.52	0
21.525	0
21.53	0
21.535	0
21.54	0
21.545	0
21.55	0
21.555	0
21.56	0
21.565	0
21.57	0
21.575	0
21.58	0
21.585	0
21.59	0
21.595	0
21.6	0
21.605	0
21.61	0
21.615	0
21.62	0
21.625	0
21.63	0
21.635	0
21.64	0
21.645	0
21.65	0
21.655	0
21.66	0
21.665	0
21.67	0
21.675	0
21.68	0
21.685	0
21.69	0
21.695	0
21.7	0
21.705	0
21.71	0
21.715	0
21.72	0
21.725	0
21.73	0
21.735	0
21.74	0
21.745	0
21.75	0
21.755	0
21.76	0
21.765	0
21.77	0
21.775	0
21.78	0
21.785	0
21.79	0
21.795	0
21.8	0
21.805	0
21.81	0
21.815	0
21.82	0
21.825	0
21.83	0
21.835	0
21.84	0
21.845	0
21.85	0
21.855	0
21.86	0
21.865	0
21.87	0
21.875	0
21.88	0
21.885	0
21.89	0
21.895	0
21.9	0
21.905	0
21.91	0
21.915	0
21.92	0
21.925	0
21.93	0
21.935	0
21.94	0
21.945	0
21.95	0
21.955	0
21.96	0
21.965	0
21.97	0
21.975	0
21.98	0
21.985	0
21.99	0
21.995	0
22	0
22.005	0
22.01	0
22.015	0
22.02	0
22.025	0
22.03	0
22.035	0
22.04	0
22.045	0
22.05	0
22.055	0
22.06	0
22.065	0
22.07	0
22.075	0
22.08	0
22.085	0
22.09	0
22.095	0
22.1	0
22.105	0
22.11	0
22.115	0
22.12	0
22.125	0
22.13	0
22.135	0
22.14	0
22.145	0
22.15	0
22.155	0
22.16	0
22.165	0
22.17	0
22.175	0
22.18	0
22.185	0
22.19	0
22.195	0
22.2	0
22.205	0
22.21	0
22.215	0
22.22	0
22.225	0
22.23	0
22.235	0
22.24	0
22.245	0
22.25	0
22.255	0
22.26	0
22.265	0
22.27	0
22.275	0
22.28	0
22.285	0
22.29	0
22.295	0
22.3	0
22.305	0
22.31	0
22.315	0
22.32	0
22.325	0
22.33	0
22.335	0
22.34	0
22.345	0
22.35	0
22.355	0
22.36	0
22.365	0
22.37	0
22.375	0
22.38	0
22.385	0
22.39	0
22.395	0
22.4	0
22.405	0
22.41	0
22.415	0
22.42	0
22.425	0
22.43	0
22.435	0
22.44	0
22.445	0
22.45	0
22.455	0
22.46	0
22.465	0
22.47	0
22.475	0
22.48	0
22.485	0
22.49	0
22.495	0
22.5	0
22.505	0
22.51	0
22.515	0
22.52	0
22.525	0
22.53	0
22.535	0
22.54	0
22.545	0
22.55	0
22.555	0
22.56	0
22.565	0
22.57	0
22.575	0
22.58	0
22.585	0
22.59	0
22.595	0
22.6	0
22.605	0
22.61	0
22.615	0
22.62	0
22.625	0
22.63	0
22.635	0
22.64	0
22.645	0
22.65	0
22.655	0
22.66	0
22.665	0
22.67	0
22.675	0
22.68	0
22.685	0
22.69	0
22.695	0
22.7	0
22.705	0
22.71	0
22.715	0
22.72	0
22.725	0
22.73	0
22.735	0
22.74	0
22.745	0
22.75	0
22.755	0
22.76	0
22.765	0
22.77	0
22.775	0
22.78	0
22.785	0
22.79	0
22.795	0
22.8	0
22.805	0
22.81	0
22.815	0
22.82	0
22.825	0
22.83	0
22.835	0
22.84	0
22.845	0
22.85	0
22.855	0
22.86	0
22.865	0
22.87	0
22.875	0
22.88	0
22.885	0
22.89	0
22.895	0
22.9	0
22.905	0
22.91	0
22.915	0
22.92	0
22.925	0
22.93	0
22.935	0
22.94	0
22.945	0
22.95	0
22.955	0
22.96	0
22.965	0
22.97	0
22.975	0
22.98	0
22.985	0
22.99	0
22.995	0
23	0
23.005	0
23.01	0
23.015	0
23.02	0
23.025	0
23.03	0
23.035	0
23.04	0
23.045	0
23.05	0
23.055	0
23.06	0
23.065	0
23.07	0
23.075	0
23.08	0
23.085	0
23.09	0
23.095	0
23.1	0
23.105	0
23.11	0
23.115	0
23.12	0
23.125	0
23.13	0
23.135	0
23.14	0
23.145	0
23.15	0
23.155	0
23.16	0
23.165	0
23.17	0
23.175	0
23.18	0
23.185	0
23.19	0
23.195	0
23.2	0
23.205	0
23.21	0
23.215	0
23.22	0
23.225	0
23.23	0
23.235	0
23.24	0
23.245	0
23.25	0
23.255	0
23.26	0
23.265	0
23.27	0
23.275	0
23.28	0
23.285	0
23.29	0
23.295	0
23.3	0
23.305	0
23.31	0
23.315	0
23.32	0
23.325	0
23.33	0
23.335	0
23.34	0
23.345	0
23.35	0
23.355	0
23.36	0
23.365	0
23.37	0
23.375	0
23.38	0
23.385	0
23.39	0
23.395	0
23.4	0
23.405	0
23.41	0
23.415	0
23.42	0
23.425	0
23.43	0
23.435	0
23.44	0
23.445	0
23.45	0
23.455	0
23.46	0
23.465	0
23.47	0
23.475	0
23.48	0
23.485	0
23.49	0
23.495	0
23.5	0
23.505	0
23.51	0
23.515	0
23.52	0
23.525	0
23.53	0
23.535	0
23.54	0
23.545	0
23.55	0
23.555	0
23.56	0
23.565	0
23.57	0
23.575	0
23.58	0
23.585	0
23.59	0
23.595	0
23.6	0
23.605	0
23.61	0
23.615	0
23.62	0
23.625	0
23.63	0
23.635	0
23.64	0
23.645	0
23.65	0
23.655	0
23.66	0
23.665	0
23.67	0
23.675	0
23.68	0
23.685	0
23.69	0
23.695	0
23.7	0
23.705	0
23.71	0
23.715	0
23.72	0
23.725	0
23.73	0
23.735	0
23.74	0
23.745	0
23.75	0
23.755	0
23.76	0
23.765	0
23.77	0
23.775	0
23.78	0
23.785	0
23.79	0
23.795	0
23.8	0
23.805	0
23.81	0
23.815	0
23.82	0
23.825	0
23.83	0
23.835	0
23.84	0
23.845	0
23.85	0
23.855	0
23.86	0
23.865	0
23.87	0
23.875	0
23.88	0
23.885	0
23.89	0
23.895	0
23.9	0
23.905	0
23.91	0
23.915	0
23.92	0
23.925	0
23.93	0
23.935	0
23.94	0
23.945	0
23.95	0
23.955	0
23.96	0
23.965	0
23.97	0
23.975	0
23.98	0
23.985	0
23.99	0
23.995	0
24	0
24.005	0
24.01	0
24.015	0
24.02	0
24.025	0
24.03	0
24.035	0
24.04	0
24.045	0
24.05	0
24.055	0
24.06	0
24.065	0
24.07	0
24.075	0
24.08	0
24.085	0
24.09	0
24.095	0
24.1	0
24.105	0
24.11	0
24.115	0
24.12	0
24.125	0
24.13	0
24.135	0
24.14	0
24.145	0
24.15	0
24.155	0
24.16	0
24.165	0
24.17	0
24.175	0
24.18	0
24.185	0
24.19	0
24.195	0
24.2	0
24.205	0
24.21	0
24.215	0
24.22	0
24.225	0
24.23	0
24.235	0
24.24	0
24.245	0
24.25	0
24.255	0
24.26	0
24.265	0
24.27	0
24.275	0
24.28	0
24.285	0
24.29	0
24.295	0
24.3	0
24.305	0
24.31	0
24.315	0
24.32	0
24.325	0
24.33	0
24.335	0
24.34	0
24.345	0
24.35	0
24.355	0
24.36	0
24.365	0
24.37	0
24.375	0
24.38	0
24.385	0
24.39	0
24.395	0
24.4	0
24.405	0
24.41	0
24.415	0
24.42	0
24.425	0
24.43	0
24.435	0
24.44	1
24.445	0
